Channel,Counts
0,52977
1,52825
2,52822
3,52614
4,52709
5,52823
6,53125
7,53013
8,53004
9,52389
10,53005
11,52928
12,52874
13,53071
14,52982
15,52774
16,52744
17,53006
18,52846
19,52581
20,52812
21,52776
22,53202
23,53413
24,52950
25,52887
26,52607
27,53084
28,52582
29,52881
30,52796
31,52628
32,53719
33,53034
34,52914
35,52849
36,53023
37,52922
38,53300
39,52797
40,53301
41,53351
42,52915
43,52899
44,52904
45,52707
46,52537
47,52637
48,52763
49,53242
50,52892
51,52790
52,53056
53,52964
54,52751
55,52758
56,53022
57,53008
58,52766
59,53091
60,53021
61,53257
62,52726
63,52582
64,52942
65,52994
66,53180
67,52906
68,52742
69,53013
70,53031
71,52754
72,52976
73,53013
74,53290
75,52620
76,52841
77,53151
78,53023
79,53164
80,52682
81,52771
82,53246
83,52462
84,53232
85,53115
86,52462
87,52799
88,52912
89,53335
90,53021
91,52943
92,52816
93,52870
94,53237
95,52943
96,53079
97,53064
98,53154
99,52759
100,52950
101,52964
102,53154
103,52883
104,53333
105,52641
106,53176
107,53079
108,52891
109,52897
110,52778
111,53005
112,53167
113,53153
114,53095
115,53280
116,53313
117,52969
118,53438
119,53245
120,53110
121,53408
122,53247
123,52769
124,53124
125,53113
126,53272
127,53058
128,52778
129,53071
130,53013
131,52938
132,53126
133,53312
134,53138
135,52793
136,53443
137,53225
138,53268
139,53000
140,53090
141,53035
142,53049
143,53391
144,53493
145,53238
146,52981
147,53253
148,53063
149,52906
150,52845
151,52844
152,53563
153,53209
154,52826
155,53141
156,53198
157,53219
158,53055
159,52614
160,52996
161,53017
162,53180
163,53057
164,53221
165,52812
166,53491
167,52766
168,53068
169,52795
170,52750
171,52734
172,52744
173,52817
174,53110
175,53121
176,53447
177,53110
178,53017
179,52924
180,53555
181,53147
182,53411
183,53236
184,52922
185,53030
186,53211
187,53216
188,53044
189,52885
190,52812
191,53113
192,53183
193,52746
194,53240
195,53269
196,52995
197,53297
198,53027
199,53109
200,53234
201,52966
202,53378
203,53385
204,53212
205,53021
206,52883
207,53292
208,53255
209,53278
210,53025
211,53100
212,53098
213,52954
214,53187
215,53736
216,53376
217,52858
218,53596
219,53190
220,52876
221,53349
222,53242
223,53225
224,53300
225,53333
226,53039
227,53124
228,53348
229,53229
230,53074
231,53222
232,52978
233,53448
234,53587
235,53187
236,53087
237,53186
238,52833
239,53351
240,53203
241,53146
242,52994
243,52918
244,53190
245,53186
246,53076
247,53334
248,53243
249,52757
250,53298
251,52949
252,53038
253,53333
254,53172
255,53032
256,53222
257,53262
258,53292
259,53127
260,53232
261,53749
262,53075
263,53163
264,53081
265,53130
266,53370
267,53141
268,53008
269,53294
270,53309
271,53266
272,53469
273,53259
274,53158
275,53159
276,53510
277,53489
278,53243
279,53030
280,53210
281,53558
282,53167
283,53215
284,53377
285,52906
286,53216
287,53363
288,53643
289,53342
290,53013
291,53325
292,53030
293,53069
294,53409
295,52918
296,53680
297,53241
298,53071
299,52887
300,53380
301,53041
302,53224
303,53464
304,53195
305,52941
306,53445
307,53472
308,53161
309,53411
310,53058
311,52937
312,53145
313,53220
314,53232
315,53317
316,53546
317,52899
318,53339
319,53095
320,53409
321,53064
322,52910
323,53630
324,53387
325,53061
326,53165
327,52980
328,52900
329,53094
330,53524
331,53254
332,53403
333,52924
334,53163
335,53306
336,53216
337,53253
338,52915
339,53268
340,53136
341,53031
342,53562
343,53099
344,53067
345,53739
346,53085
347,52698
348,53001
349,52975
350,53029
351,52949
352,52866
353,53160
354,53016
355,52924
356,52902
357,53422
358,53045
359,52778
360,52880
361,53513
362,53063
363,53258
364,53104
365,53100
366,52563
367,53017
368,53289
369,52943
370,52759
371,53029
372,52761
373,52559
374,52845
375,52488
376,52805
377,52743
378,52936
379,52727
380,52854
381,52606
382,52560
383,52855
384,52950
385,52696
386,52624
387,52511
388,52325
389,52506
390,52519
391,52166
392,52447
393,51813
394,52491
395,52155
396,52266
397,52058
398,51805
399,51987
400,51559
401,51428
402,51441
403,51488
404,51315
405,51179
406,51470
407,51261
408,50660
409,51095
410,50417
411,50868
412,50407
413,49856
414,49578
415,50074
416,49928
417,49392
418,49401
419,49182
420,49154
421,49292
422,49461
423,48886
424,49012
425,49196
426,49420
427,49275
428,49136
429,48932
430,49109
431,49377
432,49569
433,49648
434,49672
435,49848
436,50199
437,50551
438,50286
439,50374
440,50975
441,50842
442,50523
443,51064
444,50980
445,51058
446,51334
447,51380
448,52081
449,51334
450,51424
451,52063
452,51530
453,51417
454,52401
455,51948
456,52195
457,52329
458,52144
459,52326
460,52360
461,52517
462,52654
463,52561
464,52633
465,52307
466,52299
467,52862
468,52884
469,52716
470,52880
471,52878
472,52700
473,53038
474,52653
475,53107
476,52979
477,52788
478,52807
479,52995
480,52487
481,53246
482,52931
483,52723
484,52650
485,53133
486,52544
487,52927
488,52896
489,53128
490,52842
491,52960
492,53257
493,53268
494,52543
495,53477
496,53006
497,52956
498,53046
499,53332
500,53204
501,52957
502,53122
503,53163
504,53016
505,53390
506,52909
507,53323
508,53511
509,53025
510,53538
511,53424
512,53187
513,53175
514,53298
515,53443
516,53120
517,53159
518,53024
519,53308
520,53167
521,53529
522,53285
523,53199
524,53085
525,53473
526,53307
527,53049
528,53002
529,53357
530,52771
531,53040
532,53217
533,53440
534,53423
535,53069
536,53027
537,53101
538,52937
539,53387
540,53065
541,53580
542,53064
543,53504
544,53070
545,52885
546,52797
547,52734
548,52971
549,52941
550,53400
551,52857
552,53361
553,52942
554,53451
555,53315
556,53371
557,53235
558,52891
559,53481
560,53479
561,52917
562,52918
563,53466
564,52994
565,53200
566,53063
567,53682
568,52991
569,53482
570,53132
571,53080
572,53412
573,53054
574,53261
575,53135
576,53200
577,53258
578,53065
579,52939
580,53318
581,53135
582,52900
583,53385
584,53917
585,53054
586,53322
587,53220
588,53212
589,53314
590,53378
591,53374
592,53728
593,53101
594,53087
595,53114
596,53200
597,53039
598,53536
599,53177
600,53277
601,53013
602,52916
603,53451
604,52946
605,52970
606,52731
607,53045
608,52994
609,53110
610,52561
611,52910
612,52714
613,52902
614,53402
615,53408
616,52892
617,52406
618,53116
619,53193
620,52947
621,52628
622,52978
623,52938
624,53059
625,53035
626,52446
627,52768
628,52755
629,52678
630,53322
631,52549
632,52307
633,52563
634,52543
635,52075
636,52202
637,52108
638,52254
639,52462
640,52181
641,52416
642,52500
643,52128
644,52336
645,51686
646,51957
647,51803
648,51649
649,51183
650,51505
651,51893
652,51811
653,51579
654,51206
655,50849
656,50995
657,50766
658,50873
659,51043
660,49973
661,50243
662,49927
663,50336
664,49917
665,49606
666,49127
667,48940
668,49641
669,49480
670,49078
671,48962
672,48753
673,49185
674,49022
675,48307
676,48987
677,48853
678,49190
679,49485
680,49474
681,49088
682,49116
683,50077
684,50203
685,50145
686,49899
687,49925
688,50210
689,50065
690,50877
691,50583
692,51254
693,51098
694,51486
695,51269
696,50928
697,51502
698,51422
699,51966
700,52088
701,51598
702,51696
703,52070
704,51672
705,52182
706,51753
707,52235
708,52378
709,52266
710,52510
711,52139
712,52654
713,52354
714,52754
715,52159
716,52354
717,52186
718,52152
719,52873
720,52357
721,52202
722,52691
723,52647
724,52668
725,52651
726,52906
727,52723
728,52370
729,52797
730,52902
731,52464
732,52447
733,52829
734,52788
735,53146
736,52828
737,52932
738,53217
739,52629
740,53004
741,53287
742,53132
743,53113
744,52701
745,52731
746,53055
747,52935
748,53110
749,52823
750,52664
751,52984
752,52939
753,53054
754,53164
755,52983
756,52715
757,52931
758,52923
759,53027
760,53176
761,53361
762,52698
763,53393
764,52910
765,53191
766,52939
767,52835
768,52885
769,53100
770,53104
771,53171
772,52653
773,53319
774,53218
775,53316
776,53040
777,52761
778,52767
779,52649
780,53233
781,53351
782,52747
783,53337
784,53383
785,53061
786,53213
787,53022
788,52991
789,53200
790,53096
791,53294
792,53130
793,53051
794,52982
795,52990
796,52935
797,53228
798,53119
799,52644
800,52900
801,53047
802,53053
803,52802
804,52834
805,53039
806,53493
807,53308
808,53221
809,52995
810,53383
811,52922
812,53023
813,52843
814,53093
815,53139
816,53042
817,53172
818,53179
819,52803
820,52960
821,53259
822,53223
823,53552
824,52979
825,52993
826,53503
827,52963
828,53019
829,52771
830,52893
831,53269
832,52934
833,52993
834,53180
835,53186
836,53155
837,53429
838,53199
839,53390
840,52956
841,52981
842,53102
843,53257
844,53118
845,53050
846,53134
847,53119
848,53038
849,53015
850,53114
851,53192
852,52993
853,53170
854,53477
855,53016
856,53072
857,53166
858,53089
859,53062
860,52750
861,52776
862,53257
863,53046
864,52827
865,52982
866,53008
867,53336
868,52937
869,53217
870,53146
871,52933
872,52784
873,53220
874,53235
875,53057
876,52792
877,52994
878,52945
879,52535
880,52921
881,53193
882,52884
883,53011
884,52784
885,52944
886,52891
887,52595
888,53016
889,52741
890,52926
891,53161
892,52753
893,53031
894,52785
895,53512
896,53320
897,52731
898,53002
899,52547
900,53390
901,52928
902,53120
903,53022
904,53018
905,53113
906,52998
907,53369
908,53116
909,52750
910,53055
911,52849
912,53100
913,53136
914,52943
915,52597
916,53101
917,52489
918,53222
919,52412
920,52748
921,53268
922,53088
923,53359
924,52783
925,52871
926,53111
927,52973
928,52666
929,53032
930,52665
931,53233
932,52658
933,53128
934,52971
935,53019
936,52809
937,53028
938,52980
939,52743
940,53103
941,52956
942,52757
943,53386
944,52545
945,52816
946,52741
947,52947
948,52793
949,52450
950,52755
951,52249
952,52939
953,52415
954,52477
955,52790
956,52726
957,52962
958,52689
959,53271
960,52896
961,53409
962,52798
963,52798
964,53442
965,52759
966,52954
967,53190
968,52526
969,52976
970,52804
971,52606
972,52756
973,52752
974,52988
975,52692
976,53331
977,52693
978,53024
979,52656
980,52969
981,52505
982,52658
983,52826
984,52896
985,52801
986,52643
987,52865
988,52959
989,52739
990,53150
991,52735
992,52909
993,52702
994,52798
995,52684
996,53096
997,53060
998,53108
999,52521
1000,53017
1001,53156
1002,52591
1003,52921
1004,52223
1005,53037
1006,52869
1007,52915
1008,52849
1009,52817
1010,52849
1011,53186
1012,52958
1013,52395
1014,52804
1015,52548
1016,53045
1017,52570
1018,52986
1019,53023
1020,52654
1021,53058
1022,52815
1023,52437
